# frequency [MHz]	intensity
0.00000	-60.5434
0.04	-58.3545
0.08	-63.4454
0.12	-72.7800
0.16	-69.5378
0.2	-72.0731
0.24	-75.4919
0.28	-76.0028
0.32	-74.3619
0.36	-72.1988
0.4	-72.3142
0.44	-74.5314
0.48	-77.3655
0.52	-81.1555
0.56	-82.7407
0.6	-85.7151
0.64	-86.4662
0.68	-85.0999
0.72	-81.0622
0.76	-80.4735
0.8	-81.4953
0.84	-83.5449
0.88	-84.7629
0.92	-84.6480
0.96	-85.8368
1	-85.3771
1.04	-85.5028
1.08	-86.9282
1.12	-86.8314
1.16	-87.9561
1.2	-89.8872
1.24	-86.1781
1.28	-83.2273
1.32	-82.5576
1.36	-81.2995
1.4	-80.8082
1.44	-81.9178
1.48	-80.9590
1.52	-79.0886
1.56	-80.1646
1.6	-83.4954
1.64	-86.0360
1.68	-89.9388
1.72	-100.737
1.76	-106.987
1.8	-100.726
1.84	-92.6799
1.88	-87.6492
1.92	-85.5498
1.96	-87.1293
2	-88.7038
2.04	-91.3318
2.08	-99.1282
2.12	-100.331
2.16	-100.223
2.2	-96.6691
2.24	-104.648
2.28	-97.4840
2.32	-96.9600
2.36	-98.5899
2.4	-101.714
2.44	-106.574
2.48	-109.520
2.52	-114.514
2.56	-98.0877
2.6	-95.2429
2.64	-92.9686
2.68	-88.5309
2.72	-87.9021
2.76	-90.0614
2.8	-92.3730
2.84	-96.0992
2.88	-94.6265
2.92	-91.2253
2.96	-93.1307
3	-101.865
3.04	-103.594
3.08	-92.3276
3.12	-89.6798
3.16	-91.8688
3.2	-90.8392
3.24	-87.6900
3.28	-87.9115
3.32	-90.0533
3.36	-93.0870
3.4	-101.144
3.44	-95.9036
3.48	-89.2104
3.52	-86.6980
3.56	-87.7766
3.6	-90.9601
3.64	-94.3152
3.68	-94.9121
3.72	-94.6293
3.76	-95.3285
3.8	-98.9396
3.84	-104.793
3.88	-101.732
3.92	-103.993
3.96	-105.627
4	-99.6937
4.04	-98.4370
4.08	-100.246
4.12	-99.4950
4.16	-95.8851
4.2	-91.7576
4.24	-90.4211
4.28	-90.8154
4.32	-91.5528
4.36	-93.2032
4.4	-95.6283
4.44	-100.592
4.48	-99.0817
4.52	-94.6887
4.56	-91.7173
4.6	-89.6220
4.64	-88.9837
4.68	-90.8442
4.72	-95.5446
4.76	-101.621
4.8	-94.7926
4.84	-91.3373
4.88	-89.0781
4.92	-88.3710
4.96	-88.6404
5	-90.2326
5.04	-95.3880
5.08	-104.278
5.12	-93.1461
5.16	-92.2212
5.2	-94.2901
5.24	-94.0334
5.28	-92.2419
5.32	-91.4168
5.36	-91.2590
5.4	-91.4990
5.44	-90.8703
5.48	-89.3059
5.52	-89.2561
5.56	-91.8155
5.6	-93.3481
5.64	-94.3766
5.68	-97.0181
5.72	-99.0299
5.76	-95.5492
5.8	-93.9731
5.84	-94.7747
5.88	-96.9340
5.92	-116.042
5.96	-96.0986
6	-91.4167
6.04	-91.4740
6.08	-90.9594
6.12	-89.5284
6.16	-88.3955
6.2	-88.5950
6.24	-94.1461
6.28	-106.362
6.32	-108.047
6.36	-106.699
6.4	-94.4762
6.44	-90.8729
6.48	-92.5682
6.52	-97.5373
6.56	-96.8236
6.6	-89.4700
6.64	-88.6267
6.68	-89.9752
6.72	-91.6895
6.76	-96.2818
6.8	-99.6314
6.84	-101.794
6.88	-114.474
6.92	-100.519
6.96	-96.3810
7	-91.3718
7.04	-90.3599
7.08	-91.4249
7.12	-91.6612
7.16	-89.8854
7.2	-87.7537
7.24	-86.7463
7.28	-87.5653
7.32	-90.9705
7.36	-94.2994
7.4	-92.8787
7.44	-90.7916
7.48	-91.7904
7.52	-94.4521
7.56	-91.2217
7.6	-87.4227
7.64	-85.2865
7.68	-85.1315
7.72	-86.6721
7.76	-89.3861
7.8	-92.4330
7.84	-96.8511
7.88	-105.241
7.92	-106.395
7.96	-98.5716
8	-99.7334
8.04	-96.9640
8.08	-96.1723
8.12	-97.5161
8.16	-101.824
8.2	-95.2390
8.24	-90.3343
8.28	-89.6332
8.32	-92.8926
8.36	-94.8072
8.4	-91.3873
8.44	-90.0141
8.48	-90.8666
8.52	-92.6323
8.56	-93.8649
8.6	-94.3268
8.64	-92.0967
8.68	-91.3416
8.72	-89.8462
8.76	-89.8709
8.8	-93.4323
8.84	-98.1687
8.88	-99.5750
8.92	-97.1797
8.96	-93.1900
9	-91.5319
9.04	-93.5633
9.08	-95.3021
9.12	-94.6673
9.16	-94.6045
9.2	-96.4661
9.24	-107.172
9.28	-100.039
9.32	-93.2411
9.36	-92.7061
9.4	-97.0140
9.44	-102.703
9.48	-102.057
9.52	-100.866
9.56	-97.3723
9.6	-94.6243
9.64	-91.1792
9.68	-89.1202
9.72	-89.8109
9.76	-90.5124
9.8	-91.5982
9.84	-97.1392
9.88	-111.611
9.92	-96.0933
9.96	-91.5260
1E+1	-87.8495
10.04	-85.6057
10.08	-86.0688
10.12	-86.8326
10.16	-88.4302
10.2	-94.7772
10.24	-104.536
10.28	-102.073
10.32	-96.9275
10.36	-93.6729
10.4	-91.3863
10.44	-91.1254
10.48	-92.5012
10.52	-92.1836
10.56	-91.6403
10.6	-91.6134
10.64	-91.4290
10.68	-92.5499
10.72	-93.2354
10.76	-91.8792
10.8	-91.8178
10.84	-91.9705
10.88	-91.1770
10.92	-92.1574
10.96	-94.6741
11	-97.0039
11.04	-94.3399
11.08	-90.9824
11.12	-90.8309
11.16	-94.9991
11.2	-103.057
11.24	-93.7277
11.28	-92.7464
11.32	-97.6432
11.36	-103.996
11.4	-97.2078
11.44	-97.1270
11.48	-100.015
11.52	-97.1922
11.56	-92.8907
11.6	-91.9470
11.64	-91.6359
11.68	-92.4895
11.72	-100.359
11.76	-99.3926
11.8	-90.9976
11.84	-88.1861
11.88	-88.2688
11.92	-90.6118
11.96	-91.0698
12	-89.6337
12.04	-94.1443
12.08	-101.234
12.12	-93.1983
12.16	-92.6598
12.2	-102.086
12.24	-96.2727
12.28	-89.3584
12.32	-87.3543
12.36	-87.7121
12.4	-88.5229
12.44	-89.4006
12.48	-91.1562
12.52	-95.6091
12.56	-99.0129
12.6	-97.9331
12.64	-96.6362
12.68	-96.9030
12.72	-99.1354
12.76	-102.173
12.8	-99.0058
12.84	-94.6719
12.88	-93.3125
12.92	-92.2722
12.96	-94.3021
13	-97.0225
13.04	-98.4568
13.08	-99.1795
13.12	-94.2247
13.16	-93.5677
13.2	-99.4427
13.24	-107.527
13.28	-96.5902
13.32	-92.8137
13.36	-92.3023
13.4	-90.8571
13.44	-90.8890
13.48	-93.8256
13.52	-97.1837
13.56	-99.4735
13.6	-95.3446
13.64	-94.1160
13.68	-93.5237
13.72	-90.3904
13.76	-88.7863
13.8	-89.3047
13.84	-89.3883
13.88	-90.0980
13.92	-92.8719
13.96	-93.1858
14	-93.0955
14.04	-98.0918
14.08	-95.2890
14.12	-90.9086
14.16	-88.9904
14.2	-90.0116
14.24	-96.8820
14.28	-106.707
14.32	-94.7711
14.36	-92.4236
14.4	-93.1191
14.44	-90.9485
14.48	-90.9917
14.52	-92.3493
14.56	-92.9866
14.6	-93.5802
14.64	-92.8277
14.68	-91.9014
14.72	-91.1566
14.76	-93.2755
14.8	-97.6749
14.84	-99.5776
14.88	-96.9873
14.92	-91.7956
14.96	-89.8295
15	-89.6054
15.04	-91.4328
15.08	-98.3400
15.12	-101.291
15.16	-99.2565
15.2	-101.420
15.24	-106.133
15.28	-101.597
15.32	-102.354
15.36	-103.361
15.4	-99.7460
15.44	-98.3235
15.48	-97.0491
15.52	-98.3955
15.56	-101.294
15.6	-101.516
15.64	-102.227
15.68	-103.884
15.72	-107.538
15.76	-103.689
15.8	-96.5874
15.84	-92.8671
15.88	-90.4462
15.92	-90.2674
15.96	-90.9024
16	-90.6570
16.04	-91.6979
16.08	-96.3672
16.12	-106.689
16.16	-97.0559
16.2	-92.5560
16.24	-91.6429
16.28	-91.6459
16.32	-92.2503
16.36	-94.4837
16.4	-98.0230
16.44	-97.0947
16.48	-94.5766
16.52	-94.8164
16.56	-98.1643
16.6	-104.374
16.64	-96.8298
16.68	-95.0863
16.72	-95.3076
16.76	-96.5075
16.8	-95.1584
16.84	-92.3626
16.88	-91.4582
16.92	-91.5215
16.96	-91.7711
17	-93.1537
17.04	-94.4883
17.08	-92.0257
17.12	-91.2593
17.16	-94.6926
17.2	-97.0598
17.24	-96.6871
17.28	-96.5028
17.32	-95.6315
17.36	-93.5468
17.4	-92.1591
17.44	-92.6361
17.48	-95.3734
17.52	-100.462
17.56	-101.984
17.6	-96.6958
17.64	-96.4246
17.68	-96.7787
17.72	-98.5153
17.76	-97.3574
17.8	-94.5872
17.84	-93.6825
17.88	-95.1970
17.92	-97.8305
17.96	-101.230
18	-99.1718
18.04	-93.3460
18.08	-89.3611
18.12	-87.9416
18.16	-89.2494
18.2	-92.1723
18.24	-93.6150
18.28	-91.0316
18.32	-89.8019
18.36	-90.6071
18.4	-91.6539
18.44	-92.2189
18.48	-92.6841
18.52	-92.5549
18.56	-90.6674
18.6	-88.6539
18.64	-88.1945
18.68	-89.3774
18.72	-90.2204
18.76	-91.2133
18.8	-92.5998
18.84	-96.4533
18.88	-114.553
18.92	-101.210
18.96	-98.6022
19	-99.4363
19.04	-100.816
19.08	-99.3143
19.12	-96.2939
19.16	-96.0894
19.2	-96.9200
19.24	-94.3591
19.28	-92.4734
19.32	-90.8156
19.36	-89.5827
19.4	-89.4803
19.44	-89.5140
19.48	-91.0583
19.52	-97.8755
19.56	-98.1741
19.6	-93.9383
19.64	-92.1867
19.68	-92.8226
19.72	-95.5036
19.76	-103.359
19.8	-99.6992
19.84	-97.8470
19.88	-99.7468
19.92	-102.256
19.96	-100.364
2E+1	-95.9421
20.04	-95.3362
20.08	-95.9336
20.12	-94.8200
20.16	-97.3285
20.2	-99.2967
20.24	-95.4828
20.28	-92.9230
20.32	-90.2667
20.36	-89.1514
20.4	-90.2885
20.44	-92.9993
20.48	-99.2473
20.52	-107.815
20.56	-99.5437
20.6	-95.6118
20.64	-94.9142
20.68	-94.5992
20.72	-92.4418
20.76	-90.5321
20.8	-90.6436
20.84	-91.3874
20.88	-93.0360
20.92	-97.4854
20.96	-101.389
21	-102.429
21.04	-103.611
21.08	-100.863
21.12	-100.376
21.16	-105.933
21.2	-110.032
21.24	-104.167
21.28	-100.891
21.32	-101.214
21.36	-107.826
21.4	-100.714
21.44	-98.1005
21.48	-98.1616
21.52	-97.7185
21.56	-99.3727
21.6	-98.5061
21.64	-96.2363
21.68	-94.9487
21.72	-94.0266
21.76	-94.2749
21.8	-96.7559
21.84	-102.824
21.88	-100.630
21.92	-99.0267
21.96	-98.6184
22	-101.125
22.04	-97.6543
22.08	-94.2584
22.12	-94.7232
22.16	-95.7277
22.2	-95.6725
22.24	-97.0321
22.28	-98.6526
22.32	-100.202
22.36	-105.467
22.4	-104.228
22.44	-110.901
22.48	-105.626
22.52	-102.327
22.56	-101.106
22.6	-103.411
22.64	-102.292
22.68	-96.6118
22.72	-97.1077
22.76	-99.3932
22.8	-100.202
22.84	-109.639
22.88	-102.581
22.92	-98.4151
22.96	-96.8506
23	-96.4094
23.04	-97.9359
23.08	-98.5989
23.12	-99.6765
23.16	-99.7114
23.2	-99.5523
23.24	-98.6858
23.28	-95.7256
23.32	-94.2020
23.36	-94.3601
23.4	-94.5358
23.44	-94.8541
23.48	-96.6158
23.52	-103.179
23.56	-103.319
23.6	-97.0429
23.64	-97.1048
23.68	-100.729
23.72	-100.200
23.76	-95.3823
23.8	-93.6612
23.84	-94.2377
23.88	-97.1178
23.92	-102.742
23.96	-106.014
24	-98.3507
24.04	-93.7243
24.08	-92.7529
24.12	-92.5624
24.16	-90.9158
24.2	-90.3346
24.24	-91.4201
24.28	-92.7362
24.32	-95.7653
24.36	-103.803
24.4	-100.659
24.44	-96.6194
24.48	-96.4445
24.52	-96.3261
24.56	-101.047
24.6	-101.702
24.64	-97.0309
24.68	-97.3178
24.72	-98.9705
24.76	-100.639
24.8	-100.998
24.84	-101.441
24.88	-104.312
24.92	-104.064
24.96	-98.3536
25	-95.1344
25.04	-94.8763
25.08	-95.7201
25.12	-95.4138
25.16	-94.7071
25.2	-95.4861
25.24	-97.1367
25.28	-100.891
25.32	-105.839
25.36	-120.018
25.4	-108.405
25.44	-103.256
25.48	-102.225
25.52	-105.707
25.56	-117.761
25.6	-102.724
25.64	-96.4942
25.68	-93.7488
25.72	-93.1892
25.76	-93.3983
25.8	-95.0336
25.84	-97.4148
25.88	-99.7654
25.92	-98.1490
25.96	-93.3537
26	-91.5708
26.04	-92.7520
26.08	-101.380
26.12	-95.7284
26.16	-91.3164
26.2	-89.2368
26.24	-87.3224
26.28	-83.0367
26.32	-79.9729
26.36	-80.7549
26.4	-80.1217
26.44	-74.1645
26.48	-71.7931
26.52	-72.4874
26.56	-72.8747
26.6	-67.5646
26.64	-64.2209
26.68	-63.6389
26.72	-64.0208
26.76	-65.6333
26.8	-67.9673
26.84	-71.7028
26.88	-78.0352
26.92	-80.8045
26.96	-81.2516
27	-84.8845
27.04	-96.4088
27.08	-96.5103
27.12	-94.3675
27.16	-101.470
27.2	-99.9867
27.24	-115.866
27.28	-98.8544
27.32	-104.859
27.36	-98.9779
27.4	-98.7287
27.44	-96.9230
27.48	-95.0642
27.52	-97.9220
27.56	-99.2205
27.6	-99.6879
27.64	-100.647
27.68	-97.3912
27.72	-95.2999
27.76	-96.6439
27.8	-105.153
27.84	-104.766
27.88	-96.5992
27.92	-94.2962
27.96	-95.6068
28	-101.690
28.04	-113.832
28.08	-101.471
28.12	-98.3133
28.16	-99.2675
28.2	-101.422
28.24	-99.8604
28.28	-99.2481
28.32	-97.3193
28.36	-97.4721
28.4	-99.6933
28.44	-98.9019
28.48	-99.4208
28.52	-103.295
28.56	-107.777
28.6	-109.829
28.64	-110.130
28.68	-109.219
28.72	-106.505
28.76	-110.197
28.8	-110.712
28.84	-104.873
28.88	-113.346
28.92	-106.146
28.96	-99.4376
29	-97.5377
29.04	-98.7903
29.08	-104.380
29.12	-110.695
29.16	-103.906
29.2	-97.4851
29.24	-94.3894
29.28	-94.5681
29.32	-95.8765
29.36	-96.8362
29.4	-95.8198
29.44	-94.2746
29.48	-94.4020
29.52	-96.4334
29.56	-99.2683
29.6	-103.314
29.64	-103.721
29.68	-100.761
29.72	-97.9868
29.76	-98.4021
29.8	-100.122
29.84	-105.159
29.88	-110.875
29.92	-115.901
29.96	-103.645
3E+1	-100.036
30.04	-98.1766
30.08	-97.5409
30.12	-98.4219
30.16	-102.753
30.2	-107.565
30.24	-95.3139
30.28	-92.5204
30.32	-92.0446
30.36	-94.3863
30.4	-99.5558
30.44	-101.280
30.48	-99.0640
30.52	-98.4674
30.56	-98.8820
30.6	-100.530
30.64	-100.427
30.68	-98.7897
30.72	-101.843
30.76	-105.879
30.8	-104.664
30.84	-102.301
30.88	-100.456
30.92	-106.374
30.96	-108.206
31	-101.071
31.04	-99.5125
31.08	-98.8835
31.12	-101.271
31.16	-105.420
31.2	-102.141
31.24	-98.1254
31.28	-96.4171
31.32	-95.2096
31.36	-94.1172
31.4	-95.0621
31.44	-97.4546
31.48	-98.6480
31.52	-99.6504
31.56	-103.442
31.6	-105.819
31.64	-106.267
31.68	-105.982
31.72	-100.488
31.76	-95.6164
31.8	-94.0352
31.84	-93.4304
31.88	-94.3303
31.92	-97.9672
31.96	-100.307
32	-99.3277
32.04	-98.0519
32.08	-98.4920
32.12	-102.915
32.16	-107.039
32.2	-103.629
32.24	-98.7740
32.28	-96.1237
32.32	-96.3408
32.36	-96.5147
32.4	-98.1345
32.44	-102.611
32.48	-102.870
32.52	-103.756
32.56	-105.717
32.6	-105.259
32.64	-102.312
32.68	-103.381
32.72	-108.572
32.76	-108.025
32.8	-106.214
32.84	-104.543
32.88	-100.381
32.92	-98.2907
32.96	-98.8409
33	-99.3052
33.04	-99.7497
33.08	-102.517
33.12	-101.919
33.16	-100.228
33.2	-99.3666
33.24	-96.2248
33.28	-93.6761
33.32	-94.1435
33.36	-94.7455
33.4	-95.8081
33.44	-101.499
33.48	-112.325
33.52	-103.962
33.56	-99.8419
33.6	-99.4546
33.64	-101.744
33.68	-103.516
33.72	-104.547
33.76	-105.247
33.8	-105.128
33.84	-98.1554
33.88	-94.6169
33.92	-93.6764
33.96	-94.1414
34	-97.0222
34.04	-103.215
34.08	-112.041
34.12	-112.539
34.16	-114.574
34.2	-122.497
34.24	-105.962
34.28	-100.970
34.32	-100.220
34.36	-99.2631
34.4	-100.015
34.44	-106.794
34.48	-105.316
34.52	-101.686
34.56	-99.6196
34.6	-100.931
34.64	-102.682
34.68	-102.336
34.72	-100.435
34.76	-98.6658
34.8	-97.9631
34.84	-98.2904
34.88	-100.953
34.92	-107.255
34.96	-115.986
35	-113.033
35.04	-107.022
35.08	-116.428
35.12	-107.591
35.16	-102.060
35.2	-98.8210
35.24	-97.0724
35.28	-96.0815
35.32	-94.9496
35.36	-94.4134
35.4	-94.7417
35.44	-95.1216
35.48	-96.5347
35.52	-99.3077
35.56	-102.720
35.6	-106.429
35.64	-106.094
35.68	-105.129
35.72	-104.373
35.76	-103.752
35.8	-103.842
35.84	-113.073
35.88	-110.170
35.92	-102.961
35.96	-99.0378
36	-97.7756
36.04	-97.6995
36.08	-97.5980
36.12	-97.2869
36.16	-96.5955
36.2	-96.9847
36.24	-98.5352
36.28	-96.3298
36.32	-94.7743
36.36	-96.3117
36.4	-97.4821
36.44	-101.352
36.48	-105.275
36.52	-104.019
36.56	-99.4550
36.6	-98.2243
36.64	-99.0677
36.68	-103.001
36.72	-110.993
36.76	-107.063
36.8	-104.509
36.84	-102.789
36.88	-101.773
36.92	-99.9793
36.96	-98.8015
37	-98.6605
37.04	-97.1678
37.08	-95.8887
37.12	-95.4053
37.16	-94.7911
37.2	-95.3414
37.24	-98.2571
37.28	-101.047
37.32	-98.7553
37.36	-97.4849
37.4	-98.3251
37.44	-100.391
37.48	-104.634
37.52	-103.861
37.56	-104.260
37.6	-107.002
37.64	-110.900
37.68	-115.246
37.72	-111.918
37.76	-103.701
37.8	-98.9243
37.84	-97.2147
37.88	-97.0525
37.92	-96.7557
37.96	-96.7595
38	-98.6477
38.04	-104.752
38.08	-107.817
38.12	-103.747
38.16	-102.335
38.2	-104.632
38.24	-108.941
38.28	-108.121
38.32	-103.722
38.36	-102.881
38.4	-101.865
38.44	-101.568
38.48	-101.621
38.52	-102.318
38.56	-109.115
38.6	-108.957
38.64	-101.209
38.68	-98.8235
38.72	-99.7044
38.76	-103.664
38.8	-112.884
38.84	-105.032
38.88	-100.579
38.92	-97.1029
38.96	-94.4946
39	-94.3046
39.04	-95.2880
39.08	-97.0844
39.12	-101.394
39.16	-108.972
39.2	-104.687
39.24	-99.5943
39.28	-99.2460
39.32	-100.506
39.36	-96.9015
39.4	-93.2172
39.44	-90.7571
39.48	-91.5869
39.52	-95.1631
39.56	-100.562
39.6	-114.569
39.64	-106.113
39.68	-102.930
39.72	-101.142
39.76	-99.7329
39.8	-98.9725
39.84	-100.546
39.88	-103.556
39.92	-104.344
39.96	-106.622
4E+1	-105.825
40.04	-102.714
40.08	-102.360
40.12	-102.652
40.16	-106.911
40.2	-110.843
40.24	-109.308
40.28	-106.446
40.32	-104.610
40.36	-102.745
40.4	-100.490
40.44	-100.143
40.48	-100.529
40.52	-101.792
40.56	-106.583
40.6	-112.718
40.64	-106.627
40.68	-98.9796
40.72	-97.8958
40.76	-100.571
40.8	-103.414
40.84	-106.707
40.88	-107.090
40.92	-102.778
40.96	-100.446
41	-102.245
41.04	-108.301
41.08	-105.003
41.12	-98.5295
41.16	-96.2437
41.2	-96.7659
41.24	-100.231
41.28	-107.920
41.32	-125.813
41.36	-117.651
41.4	-110.416
41.44	-103.120
41.48	-102.028
41.52	-105.662
41.56	-109.103
41.6	-106.903
41.64	-104.106
41.68	-103.688
41.72	-102.492
41.76	-103.643
41.8	-104.912
41.84	-101.007
41.88	-98.6600
41.92	-97.1650
41.96	-97.2325
42	-98.9122
42.04	-99.1374
42.08	-98.8377
42.12	-99.1272
42.16	-99.5914
42.2	-101.105
42.24	-102.078
42.28	-102.434
42.32	-100.118
42.36	-97.8995
42.4	-97.0689
42.44	-97.9742
42.48	-101.341
42.52	-105.172
42.56	-113.496
42.6	-122.474
42.64	-112.181
42.68	-104.546
42.72	-100.859
42.76	-100.575
42.8	-101.950
42.84	-103.691
42.88	-105.829
42.92	-109.207
42.96	-105.405
43	-100.859
43.04	-98.3764
43.08	-97.2176
43.12	-99.0564
43.16	-104.943
43.2	-107.915
43.24	-102.612
43.28	-100.428
43.32	-97.0734
43.36	-91.1965
43.4	-89.3827
43.44	-90.0115
43.48	-90.1608
43.52	-93.3543
43.56	-103.365
43.6	-107.773
43.64	-106.223
43.68	-104.090
43.72	-101.406
43.76	-99.8674
43.8	-98.1369
43.84	-95.8768
43.88	-95.5442
43.92	-98.0909
43.96	-103.560
44	-111.476
44.04	-111.317
44.08	-108.347
44.12	-105.674
44.16	-102.936
44.2	-103.504
44.24	-107.673
44.28	-110.315
44.32	-104.128
44.36	-97.9002
44.4	-94.8006
44.44	-93.9846
44.48	-94.3672
44.52	-98.6692
44.56	-106.799
44.6	-100.805
44.64	-99.6350
44.68	-99.0324
44.72	-98.2877
44.76	-98.5317
44.8	-99.0896
44.84	-101.212
44.88	-103.198
44.92	-102.375
44.96	-103.673
45	-105.765
45.04	-102.693
45.08	-101.114
45.12	-101.520
45.16	-104.517
45.2	-110.010
45.24	-106.293
45.28	-101.377
45.32	-102.024
45.36	-104.336
45.4	-99.0923
45.44	-97.2786
45.48	-96.7860
45.52	-99.4923
45.56	-120.941
45.6	-100.812
45.64	-96.7262
45.68	-95.4485
45.72	-95.9148
45.76	-97.4922
45.8	-98.9538
45.84	-97.1517
45.88	-96.3204
45.92	-96.8132
45.96	-98.1372
46	-103.465
46.04	-112.018
46.08	-102.228
46.12	-97.3348
46.16	-95.1848
46.2	-94.1701
46.24	-93.8663
46.28	-94.6116
46.32	-95.2897
46.36	-95.6854
46.4	-96.5308
46.44	-97.8385
46.48	-97.3038
46.52	-95.8639
46.56	-97.5064
46.6	-101.787
46.64	-105.338
46.68	-103.187
46.72	-102.863
46.76	-103.231
46.8	-100.076
46.84	-100.839
46.88	-104.306
46.92	-108.305
46.96	-130.185
47	-109.572
47.04	-111.264
47.08	-107.884
47.12	-105.974
47.16	-101.544
47.2	-98.5811
47.24	-99.6215
47.28	-101.880
47.32	-104.739
47.36	-109.027
47.4	-100.328
47.44	-98.2581
47.48	-97.0532
47.52	-94.7928
47.56	-96.1192
47.6	-99.7940
47.64	-105.521
47.68	-107.559
47.72	-97.2061
47.76	-94.8819
47.8	-94.8867
47.84	-98.0216
47.88	-108.843
47.92	-108.649
47.96	-103.286
48	-102.996
48.04	-104.681
48.08	-104.615
48.12	-103.640
48.16	-104.086
48.2	-104.154
48.24	-105.208
48.28	-106.217
48.32	-108.475
48.36	-109.937
48.4	-97.1594
48.44	-93.0247
48.48	-91.2534
48.52	-90.5646
48.56	-92.7387
48.6	-98.4741
48.64	-103.238
48.68	-105.389
48.72	-109.749
48.76	-115.331
48.8	-109.959
48.84	-106.360
48.88	-103.118
48.92	-101.497
48.96	-101.457
49	-103.230
49.04	-105.371
49.08	-109.046
49.12	-126.557
49.16	-106.161
49.2	-101.817
49.24	-103.263
49.28	-110.507
49.32	-116.924
49.36	-116.328
49.4	-109.309
49.44	-106.175
49.48	-106.732
49.52	-107.738
49.56	-107.854
49.6	-110.695
49.64	-125.681
49.68	-107.917
49.72	-102.341
49.76	-102.870
49.8	-103.642
49.84	-101.404
49.88	-100.615
49.92	-101.445
49.96	-100.993
